File: example_data/Example_MEA_01/CVs/CVpost_C01.txt
Ewe/V	<I>/mA	cycle number
1.3407	-1.78333	1	0
1.36562	-15.4129	1	0
1.26966	-18.0532	1	0
1.17363	-16.8086	1	0
1.07768	-18.2226	1	0
0.981671	-24.02	1	0
0.885687	-36.5338	1	0
0.78965	-57.0758	1	0
0.693724	-258.427	1	0
0.597706	-49.8618	1	0
0.501744	-18.2774	1	0
0.405723	-14.9149	1	0
0.309735	-19.5478	1	0
0.213739	-33.7802	1	0
0.117695	-56.3936	1	0
0.175983	28.7095	1	0
0.271992	24.6394	1	0
0.367968	11.1229	1	0
0.463988	10.9538	1	0
0.559985	14.342	1	0
0.655964	19.1297	1	0
0.751944	34.4227	1	0
0.847976	50.047	1	0
0.943978	44.7907	1	0
1.03994	45.2584	1	0
1.13594	50.5639	1	0
1.23192	53.5178	1	0
1.32791	54.3629	1	0
1.3796	8.71911	2	0
1.28362	-13.7136	2	0
1.18762	-14.9833	2	0
1.09162	-17.1511	2	0
0.995685	-22.4281	2	0
0.899711	-40.0932	2	0
0.803698	-123.167	2	0
0.707682	-83.063	2	0
0.61171	-27.0125	2	0
0.515694	-15.0809	2	0
0.419707	-12.0919	2	0
0.323676	-14.9198	2	0
0.227705	-31.2743	2	0
0.131744	-48.3187	2	0
0.161981	30.1073	2	0
0.257962	28.1697	2	0
0.353948	11.9214	2	0
0.44997	10.8547	2	0
0.54593	13.5638	2	0
0.641996	18.2177	2	0
0.737965	29.4525	2	0
0.834007	50.6991	2	0
0.929937	44.2177	2	0
1.02591	44.0794	2	0
1.1219	48.6055	2	0
1.21792	52.2211	2	0
1.31391	52.9684	2	0
1.3936	34.3738	3	0
1.29756	-13.5059	3	0
1.20166	-14.0236	3	0
1.10568	-16.2036	3	0
1.0097	-20.521	3	0
0.913686	-35.2196	3	0
0.817697	-101.298	3	0
0.721656	-101.552	3	0
0.625699	-29.164	3	0
0.529699	-14.6847	3	0
0.433697	-11.812	3	0
0.337693	-13.0367	3	0
0.241674	-29.177	3	0
0.145683	-41.6602	3	0
0.147996	31.6594	3	0
0.24402	29.5992	3	0
0.339926	13.0168	3	0
0.43599	10.617	3	0
0.531919	13.062	3	0
0.627932	17.1163	3	0
0.723966	25.6784	3	0
0.819974	50.3739	3	0
0.915922	43.9661	3	0
1.01195	43.4037	3	0
1.10792	46.5885	3	0
1.20391	51.1807	3	0
1.29985	51.301	3	0
1.39433	71.6379	4	0
1.31164	-12.2466	4	0
1.21563	-13.947	4	0
1.11966	-15.7364	4	0
1.02365	-19.2009	4	0
0.927677	-31.3304	4	0
0.831682	-84.3128	4	0
0.735647	-120.235	4	0
0.639716	-32.3916	4	0
0.543728	-15.6576	4	0
0.447755	-12.3329	4	0
0.351689	-12.2327	4	0
0.255674	-26.3295	4	0
0.159698	-34.6559	4	0
0.134001	33.8913	4	0
0.229988	29.0232	4	0
0.325965	14.0687	4	0
0.422002	10.3568	4	0
0.517999	12.3766	4	0
0.613958	16.232	4	0
0.709934	23.0229	4	0
0.805923	47.2146	4	0
0.901935	44.0834	4	0
0.997923	43.5529	4	0
1.09392	45.8528	4	0
1.18986	50.196	4	0
1.2859	51.9886	4	0
1.38037	59.8418	5	0
1.3256	-10.9454	5	0
1.22964	-13.5529	5	0
1.13365	-14.5054	5	0
1.03766	-18.1265	5	0
0.941667	-29.2404	5	0
0.845723	-70.6855	5	0
0.749655	-137.63	5	0
0.653717	-37.8633	5	0
0.557668	-16.8053	5	0
0.461714	-14.135	5	0
0.365652	-12.4106	5	0
0.269707	-24.9058	5	0
0.173711	-32.7626	5	0
0.119973	35.518	5	0
0.215954	27.7459	5	0
0.311957	15.6948	5	0
0.407994	10.1597	5	0
0.504011	11.4675	5	0
0.599937	14.9727	5	0
0.695959	20.7756	5	0
0.79193	43.3291	5	0
0.88795	44.6508	5	0
0.983932	43.5953	5	0
1.07991	44.7674	5	0
1.1759	50.1337	5	0
1.27191	51.4525	5	0
1.3664	54.5945	6	0
1.33962	-9.56164	6	0
1.24361	-13.1921	6	0
1.14764	-14.8862	6	0
1.05168	-17.601	6	0
0.955692	-26.9345	6	0
0.859696	-64.9258	6	0
0.763673	-141.781	6	0
0.667652	-40.8344	6	0
0.571706	-17.623	6	0
0.475701	-12.665	6	0
0.379675	-11.6497	6	0
0.283735	-20.3216	6	0
0.187718	-29.8019	6	0
0.105998	32.7346	6	0
0.201939	27.2291	6	0
0.298015	17.9524	6	0
0.393954	10.9226	6	0
0.489972	11.8543	6	0
0.585976	15.1496	6	0
0.681948	19.8475	6	0
0.777954	40.2686	6	0
0.87397	46.3463	6	0
0.96993	43.1878	6	0
1.06593	44.3068	6	0
1.1619	49.8916	6	0
1.25789	50.945	6	0
1.35235	52.5869	7	0
1.35363	-6.93664	7	0
1.25766	-12.7437	7	0
1.16166	-14.1352	7	0
1.06573	-16.7503	7	0
0.969661	-24.9036	7	0
0.873693	-53.1797	7	0
0.777636	-147.22	7	0
0.681677	-47.547	7	0
0.585653	-18.9437	7	0
0.489781	-12.4315	7	0
0.393687	-11.6078	7	0
0.297718	-17.5603	7	0
0.2017	-28.6217	7	0
0.105768	-55.6246	7	0
0.187983	29.1245	7	0
0.283995	22.7559	7	0
0.379927	11.0971	7	0
0.476006	10.884	7	0
0.571976	13.7902	7	0
0.667957	19.0104	7	0
0.763936	33.3959	7	0
0.859963	47.641	7	0
0.955935	43.1573	7	0
1.05195	43.2178	7	0
1.1479	49.1255	7	0
1.2439	51.4648	7	0
1.33988	50.8448	7	0
1.3676	-2.97088	8	0
1.27164	-12.2256	8	0
1.17559	-13.5752	8	0
1.07967	-16.306	8	0
0.983696	-22.5043	8	0
0.887696	-45.7214	8	0
0.791688	-142.588	8	0
0.695673	-58.9831	8	0
0.599672	-21.5394	8	0
0.503741	-13.876	8	0
0.407697	-11.8222	8	0
0.311715	-15.7126	8	0
0.215731	-29.2131	8	0
0.119703	-52.8081	8	0
0.173985	28.6412	8	0
0.269954	25.2322	8	0
0.365964	10.8493	8	0
0.461981	10.1641	8	0
0.557948	13.3891	8	0
0.654001	18.3579	8	0
0.749942	30.1539	8	0
0.845971	49.1543	8	0
0.941904	41.9623	8	0
1.03797	43.2982	8	0
1.13391	47.139	8	0
1.22992	51.0907	8	0
1.32587	51.2917	8	0
1.38159	7.18087	9	0
1.28563	-12.4211	9	0
1.18964	-13.6522	9	0
1.09361	-15.6067	9	0
0.997679	-21.3305	9	0
0.901701	-40.3634	9	0
0.805673	-128.246	9	0
0.709652	-69.3437	9	0
0.613744	-23.0095	9	0
0.517747	-13.8805	9	0
0.421711	-11.57	9	0
0.325655	-14.5522	9	0
0.229733	-29.5847	9	0
0.133699	-47.7701	9	0
0.159971	31.8423	9	0
0.256004	29.2321	9	0
0.351979	11.9164	9	0
0.448017	9.63254	9	0
0.543984	12.5882	9	0
0.639989	17.048	9	0
0.735923	25.8207	9	0
0.831973	49.0395	9	0
0.927944	43.1293	9	0
1.02395	42.325	9	0
1.11995	45.6571	9	0
1.21586	50.1701	9	0
1.3119	50.034	9	0
1.3956	31.2399	10	0
1.29967	-11.9	10	0
1.20363	-13.4384	10	0
1.10766	-14.4432	10	0
1.01167	-19.4001	10	0
0.915708	-34.8247	10	0
0.819755	-107.172	10	0
0.723672	-85.2653	10	0
0.627698	-25.2697	10	0
0.531676	-13.8998	10	0
0.43574	-10.944	10	0
0.33972	-13.2561	10	0
0.243743	-29.02	10	0
0.147712	-40.6628	10	0
0.146006	30.9054	10	0
0.241992	28.4848	10	0
0.337962	13.8744	10	0
0.433996	10.0654	10	0
0.52996	12.0315	10	0
0.625937	15.7037	10	0
0.72195	23.0072	10	0
0.817972	46.5316	10	0
0.913954	41.9737	10	0
1.00994	42.1231	10	0
1.10591	45.407	10	0
1.20193	49.5454	10	0
1.2979	49.9856	10	0
1.39238	62.878	11	0
1.31364	-11.1005	11	0
1.21763	-12.5708	11	0
1.12163	-15.2103	11	0
1.02563	-18.3396	11	0
0.929641	-31.5354	11	0
0.83372	-89.6436	11	0
0.737688	-100.658	11	0
0.641704	-28.6793	11	0
0.54571	-14.6896	11	0
0.449732	-11.018	11	0
0.353658	-12.1371	11	0
0.257762	-27.904	11	0
0.161718	-33.9637	11	0
0.132024	34.5696	11	0
0.227956	27.381	11	0
0.323939	14.5328	11	0
0.42	9.55103	11	0
0.515982	11.7379	11	0
0.611968	14.3694	11	0
0.707945	21.1504	11	0
0.803971	43.7405	11	0
0.900009	41.8498	11	0
0.995951	42.0316	11	0
1.09193	44.1267	11	0
1.18791	48.8086	11	0
1.28393	49.5763	11	0
1.34078	50.6504	11	0