File: example_data/Example_MEA_01/CVs/CVpre_C01.txt
Ewe/V	<I>/mA	cycle number
1.01917	-1.36326	1	0
1.11477	16.5285	1	0
1.21068	18.0705	1	0
1.3067	19.9279	1	0
1.39966	14.4298	1	0
1.30363	-15.5175	1	0
1.20762	-14.7211	1	0
1.1116	-15.2044	1	0
1.01561	-16.0908	1	0
0.919684	-26.7315	1	0
0.823648	-51.9053	1	0
0.727632	-151.336	1	0
0.631633	-211.915	1	0
0.535671	-30.0863	1	0
0.439764	-20.5546	1	0
0.343642	-23.4416	1	0
0.247718	-44.661	1	0
0.151659	-63.539	1	0
0.142968	35.9244	1	0
0.238954	33.2751	1	0
0.334958	15.3606	1	0
0.430951	11.0034	1	0
0.526938	14.794	1	0
0.62294	19.0584	1	0
0.71898	28.7953	1	0
0.814893	57.2953	1	0
0.91095	53.764	1	0
1.00696	54.9336	1	0
1.1018	59.7113	2	0
1.19779	65.2174	2	0
1.2938	66.0179	2	0
1.38979	75.4853	2	0
1.31662	-10.5757	2	0
1.22056	-13.9483	2	0
1.12463	-16.688	2	0
1.02869	-21.694	2	0
0.932685	-38.1499	2	0
0.836651	-105.474	2	0
0.740657	-146.431	2	0
0.644692	-40.5942	2	0
0.548645	-19.3971	2	0
0.452654	-14.8387	2	0
0.356657	-16.4932	2	0
0.26066	-34.2801	2	0
0.164675	-48.0847	2	0
0.129995	40.3635	2	0
0.22594	32.2197	2	0
0.321929	18.2983	2	0
0.417982	10.8714	2	0
0.513986	13.0849	2	0
0.609971	17.1144	2	0
0.705948	25.3358	2	0
0.801931	53.2627	2	0
0.897995	52.285	2	0
0.993913	51.9286	2	0
1.08884	54.1564	3	0
1.18477	60.9072	3	0
1.28084	62.6466	3	0
1.37681	66.3602	3	0
1.32963	-9.74049	3	0
1.23365	-13.4476	3	0
1.1376	-16.2613	3	0
1.04165	-20.5432	3	0
0.945676	-33.8028	3	0
0.849675	-86.8589	3	0
0.753648	-164.1	3	0
0.657715	-45.5376	3	0
0.561669	-20.8585	3	0
0.465725	-14.9399	3	0
0.369724	-15.6062	3	0
0.273683	-29.4591	3	0
0.177759	-42.0163	3	0
0.117022	39.9787	3	0
0.212986	31.6763	3	0
0.308972	20.0294	3	0
0.40497	11.3956	3	0
0.500967	12.173	3	0
0.596966	15.5585	3	0
0.692992	22.6032	3	0
0.788943	49.1166	3	0
0.884963	51.0903	3	0
0.980948	50.792	3	0
1.07587	52.3512	4	0
1.17183	58.6675	4	0
1.26782	62.4732	4	0
1.36378	61.2592	4	0
1.34258	-8.20093	4	0
1.24661	-13.7409	4	0
1.15065	-15.7437	4	0
1.05467	-20.4531	4	0
0.958675	-30.953	4	0
0.862682	-73.6284	4	0
0.766608	-173.467	4	0
0.67065	-50.9595	4	0
0.574654	-22.1219	4	0
0.478703	-15.5518	4	0
0.382686	-15.0576	4	0
0.286689	-25.0497	4	0
0.190663	-39.017	4	0
0.103939	25.716	4	0
0.199983	33.3102	4	0
0.295964	23.1718	4	0
0.391939	11.0842	4	0
0.488006	11.2372	4	0
0.583959	14.6729	4	0
0.679943	22.1626	4	0
0.775959	44.1029	4	0
0.871957	52.7	4	0
0.968012	50.4299	4	0
1.06282	50.3558	5	0
1.15883	56.8241	5	0
1.2548	60.2472	5	0
1.35076	61.0264	5	0
1.35564	-6.14857	5	0
1.2596	-13.5686	5	0
1.16368	-15.1468	5	0
1.06763	-19.4145	5	0
0.971657	-28.7462	5	0
0.87572	-62.3139	5	0
0.779655	-173.876	5	0
0.683646	-59.299	5	0
0.587668	-21.9882	5	0
0.491688	-15.2429	5	0
0.395686	-14.1166	5	0
0.2997	-22.277	5	0
0.203702	-36.5527	5	0
0.107731	-66.6946	5	0
0.186957	32.7926	5	0
0.283011	24.9067	5	0
0.379024	11.8543	5	0
0.474935	11.1345	5	0
0.570964	14.9227	5	0
0.666983	20.1549	5	0
0.762926	38.8737	5	0
0.858989	53.8307	5	0
0.954911	49.1045	5	0
1.04988	49.0707	6	0
1.1458	55.2539	6	0
1.24184	59.075	6	0
1.33781	59.0322	6	0
1.36862	-0.0878324	6	0
1.27265	-12.5915	6	0
1.17661	-14.3175	6	0
1.0807	-17.5209	6	0
0.984612	-25.2345	6	0
0.888715	-50.5903	6	0
0.79267	-157.932	6	0
0.696671	-73.4482	6	0
0.600695	-24.961	6	0
0.504717	-15.0517	6	0
0.408716	-13.8132	6	0
0.312704	-18.749	6	0
0.216669	-35.804	6	0
0.120698	-60.0162	6	0
0.173988	31.5087	6	0
0.270006	29.2614	6	0
0.365959	11.6052	6	0
0.462025	10.6081	6	0
0.557983	13.1899	6	0
0.653982	18.9747	6	0
0.749964	33.2538	6	0
0.846008	53.9159	6	0
0.941964	48.1494	6	0
1.03684	48.1676	7	0
1.13286	57.5961	7	0
1.22883	58.1107	7	0
1.32484	55.9802	7	0
1.38165	8.92923	7	0
1.28565	-12.7607	7	0
1.18963	-14.4398	7	0
1.09365	-16.8199	7	0
0.997719	-23.6876	7	0
0.901696	-46.9968	7	0
0.805668	-146.662	7	0
0.70969	-81.7386	7	0
0.613692	-25.6346	7	0
0.517709	-15.8719	7	0
0.421747	-13.0056	7	0
0.325693	-17.7525	7	0
0.229693	-35.0257	7	0
0.133695	-55.5205	7	0
0.160988	34.6635	7	0
0.256973	30.7134	7	0
0.352955	12.8915	7	0
0.449037	10.5895	7	0
0.544984	13.2644	7	0
0.640993	16.7444	7	0
0.736988	29.2266	7	0
0.832993	54.9815	7	0
0.928938	46.2185	7	0
1.02386	48.8154	8	0
1.1198	50.9672	8	0
1.21585	57.5046	8	0
1.31183	57.1644	8	0
1.39462	30.1865	8	0
1.29861	-12.4711	8	0
1.20265	-13.8779	8	0
1.10665	-15.3972	8	0
1.01067	-22.4644	8	0
0.914704	-40.0531	8	0
0.818713	-123.151	8	0
0.722604	-95.9566	8	0
0.62669	-28.8823	8	0
0.530671	-15.633	8	0
0.434726	-13.3778	8	0
0.338711	-15.4685	8	0
0.242677	-34.7717	8	0
0.146719	-49.9022	8	0
0.148025	35.1528	8	0
0.244024	29.3445	8	0
0.339972	13.7336	8	0
0.436035	10.0069	8	0
0.531956	11.7589	8	0
0.62795	16.661	8	0
0.723977	25.1948	8	0
0.819956	51.4477	8	0
0.916008	47.5072	8	0
1.01194	45.9277	8	0
1.10686	49.9701	9	0
1.2029	56.5186	9	0
1.29882	56.41	9	0
1.39475	70.2028	9	0
1.31162	-10.3671	9	0
1.21562	-12.9825	9	0
1.11967	-15.3591	9	0
1.02368	-19.8556	9	0
0.927712	-34.6588	9	0
0.831711	-99.1473	9	0
0.735653	-119.069	9	0
0.639704	-33.6335	9	0
0.543721	-16.3878	9	0
0.447721	-13.1492	9	0
0.351716	-14.421	9	0
0.255724	-31.1433	9	0
0.159718	-40.9723	9	0
0.13495	35.3302	9	0
0.231023	30.3324	9	0
0.326973	15.2286	9	0
0.422977	9.12901	9	0
0.518962	12.6854	9	0
0.614975	15.9492	9	0
0.710893	23.523	9	0
0.806903	50.8785	9	0
0.903009	47.9554	9	0
0.999037	46.6412	9	0
1.09378	49.4136	10	0
1.18981	54.4768	10	0
1.28586	55.8414	10	0
1.38178	61.5349	10	0
1.32462	-10.2056	10	0
1.22867	-12.8399	10	0
1.13265	-14.6786	10	0
1.03664	-17.7719	10	0
0.940655	-31.5766	10	0
0.844703	-86.7178	10	0
0.748669	-137.761	10	0
0.652676	-36.5219	10	0
0.556695	-17.4279	10	0
0.460727	-12.6731	10	0
0.364701	-12.9417	10	0
0.268718	-27.9032	10	0
0.172683	-37.707	10	0
0.121923	38.7391	10	0
0.217959	30.6169	10	0
0.313948	17.6586	10	0
0.409989	10.3886	10	0
0.505968	11.8622	10	0
0.601974	15.2269	10	0
0.697988	21.2324	10	0
0.793865	46.6346	10	0
0.889993	47.1954	10	0
0.985956	46.3749	10	0
1.08088	47.1258	11	0
1.17678	54.0903	11	0
1.27285	55.6971	11	0
1.36876	57.8552	11	0
1.33764	-8.23311	11	0
1.24162	-12.8293	11	0
1.14563	-14.531	11	0
1.04968	-18.6698	11	0
0.953707	-29.1541	11	0
0.857737	-70.778	11	0
0.761694	-147.338	11	0
0.665716	-42.3783	11	0
0.569665	-17.9545	11	0
0.473724	-13.3443	11	0
0.377695	-12.8688	11	0
0.281726	-24.1643	11	0
0.185744	-33.7895	11	0
0.108964	37.3374	11	0
0.205007	30.1685	11	0
0.300955	20.152	11	0
0.396939	10.63	11	0
0.492998	11.5427	11	0
0.588967	14.7501	11	0
0.684978	20.867	11	0
0.780949	42.8162	11	0
0.877015	48.3185	11	0
0.972941	46.3063	11	0
1.01917	45.5226	11	0